 # mass    139.578003      MeV
 # Ekin    45000.0000      MeV
 # path   0.260206014      um
 # mean dE/dx    373.898499      eV/um
 #         j      dE [eV]      dE*dE*dsig/ddE [eV*eV/cm]
 START
           1      1.79589844          1106.63220    
           2      1.81545448          1131.18982    
           3      1.83522356          1156.29834    
           4      1.85520780          1181.96387    
           5      1.87540972          1208.19897    
           6      1.89583158          1235.01611    
           7      1.91647589          1262.38025    
           8      1.93734491          1290.33716    
           9      1.95844126          1318.91321    
          10      1.97976732          1348.12134    
          11      2.00132561          1377.97144    
          12      2.02311873          1408.40466    
          13      2.04514909          1439.50964    
          14      2.06741929          1471.30139    
          15      2.08993196          1503.79456    
          16      2.11268973          1537.29724    
          17      2.13569546          1571.77966    
          18      2.15895176          1607.03015    
          19      2.18246126          1643.06445    
          20      2.20622683          1679.65894    
          21      2.23025107          1716.36755    
          22      2.25453687          1778.91333    
          23      2.27908707          1819.35559    
          24      2.30390477          1860.38464    
          25      2.32899261          1902.37878    
          26      2.35435367          1945.22986    
          27      2.37999082          1988.97363    
          28      2.40590715          2033.69812    
          29      2.43210578          2079.55176    
          30      2.45858979          2126.42407    
          31      2.48536205          2174.28882    
          32      2.51242590          2223.21924    
          33      2.53978443          2273.21045    
          34      2.56744099          2324.29004    
          35      2.59539866          2376.48022    
          36      2.62366080          2428.37769    
          37      2.65223050          2481.15503    
          38      2.68111134          2535.06519    
          39      2.71030664          2590.48267    
          40      2.73982000          2647.61890    
          41      2.76965475          2705.98950    
          42      2.79981422          2765.64478    
          43      2.83030224          2826.51367    
          44      2.86112213          2888.68555    
          45      2.89227772          2952.21460    
          46      2.92377257          3015.80518    
          47      2.95561028          3080.37720    
          48      2.98779488          3146.39062    
          49      3.02032995          3210.69849    
          50      3.05321932          3274.74048    
          51      3.08646679          3340.43384    
          52      3.12007618          3399.91235    
          53      3.15405154          3456.48047    
          54      3.18839693          3515.60522    
          55      3.22311640          3535.10132    
          56      3.25821376          3539.66724    
          57      3.29369330          3550.84692    
          58      3.32955933          3476.05347    
          59      3.36581588          3380.85742    
          60      3.40246725          3295.33252    
          61      3.43951774          3295.01172    
          62      3.47697163          3281.60767    
          63      3.51483345          3285.26562    
          64      3.55310750          3334.41699    
          65      3.59179831          3382.08569    
          66      3.63091040          3435.42969    
          67      3.67044854          3490.60327    
          68      3.71041703          3544.56177    
          69      3.75082088          3594.81836    
          70      3.79166460          3645.00781    
          71      3.83295321          3691.82031    
          72      3.87469125          3737.88159    
          73      3.91688395          3779.22192    
          74      3.95953608          3813.70557    
          75      4.00265265          3846.41724    
          76      4.04623890          3845.33130    
          77      4.09029961          3845.90015    
          78      4.13484001          3768.62061    
          79      4.17986536          3672.15479    
          80      4.22538090          3535.59717    
          81      4.27139235          3346.37158    
          82      4.31790495          3165.65674    
          83      4.36492395          2980.84106    
          84      4.41245508          2784.46826    
          85      4.46050358          2703.79663    
          86      4.50907516          2604.92676    
          87      4.55817556          2582.17896    
          88      4.60781097          2552.23657    
          89      4.65798664          2620.09668    
          90      4.70870876          2697.98682    
          91      4.75998306          2816.90991    
          92      4.81181574          2949.07031    
          93      4.86421299          3089.76587    
          94      4.91718102          3244.00464    
          95      4.97072554          3408.35132    
          96      5.02485323          3582.93481    
          97      5.07957029          3764.38770    
          98      5.13488340          3935.59155    
          99      5.19079876          4101.58398    
         100      5.24732304          4198.77002    
         101      5.30446243          4275.95459    
         102      5.36222410          4268.07129    
         103      5.42061472          4260.39697    
         104      5.47964144          4257.82275    
         105      5.53931093          4303.09863    
         106      5.59962988          4376.17334    
         107      5.66060591          4488.72021    
         108      5.72224569          4603.12793    
         109      5.78455687          4717.92090    
         110      5.84754658          4819.08984    
         111      5.91122198          4913.46631    
         112      5.97559118          4998.73682    
         113      6.04066133          5120.39893    
         114      6.10644007          5271.03564    
         115      6.17293501          5427.37354    
         116      6.24015379          5594.52100    
         117      6.30810452          5772.40186    
         118      6.37679529          5958.49902    
         119      6.44623423          6156.63086    
         120      6.51642895          6366.50000    
         121      6.58738804          6587.44434    
         122      6.65912008          6824.45020    
         123      6.73163319          7076.08008    
         124      6.80493593          7345.06104    
         125      6.87903690          7663.09082    
         126      6.95394468          8005.12061    
         127      7.02966833          8354.84863    
         128      7.10621643          8695.49316    
         129      7.18359804          9054.97852    
         130      7.26182222          9241.63184    
         131      7.34089851          9368.96582    
         132      7.42083549          9518.65332    
         133      7.50164318          9767.20898    
         134      7.58333063          10017.2119    
         135      7.66590786          10322.7344    
         136      7.74938440          10652.2510    
         137      7.83376980          11009.4707    
         138      7.91907406          11408.9199    
         139      8.00530720          11827.8916    
         140      8.09247971          12256.5322    
         141      8.18060112          12706.7236    
         142      8.26968193          13153.1211    
         143      8.35973263          13610.6230    
         144      8.45076466          14146.0576    
         145      8.54278755          14764.2510    
         146      8.63581276          15417.3037    
         147      8.72985077          16101.6553    
         148      8.82491302          16802.3145    
         149      8.92101002          17448.0254    
         150      9.01815319          18160.5957    
         151      9.11635494          19082.6270    
         152      9.21562576          20043.2383    
         153      9.31597710          20853.0273    
         154      9.41742134          21745.8906    
         155      9.51996994          22902.2383    
         156      9.62363529          24134.7207    
         157      9.72842979          25373.9688    
         158      9.83436584          26704.3379    
         159      9.94145489          28118.1074    
         160      10.0497103          29660.9375    
         161      10.1591444          31352.2988    
         162      10.2697706          33265.9297    
         163      10.3816013          35415.6641    
         164      10.4946499          37626.1367    
         165      10.6089296          40020.4844    
         166      10.7244530          42538.7891    
         167      10.8412342          45276.8125    
         168      10.9592876          48215.7344    
         169      11.0786266          51380.0938    
         170      11.1992655          54837.3398    
         171      11.3212175          58525.6680    
         172      11.4444971          62568.6875    
         173      11.5691195          66960.8203    
         174      11.6950989          71725.4766    
         175      11.8224506          76968.5703    
         176      11.9511890          91582.4688    
         177      12.0813293          98143.3750    
         178      12.2128868          105230.727    
         179      12.3458767          113089.641    
         180      12.4803143          121690.070    
         181      12.6162157          131059.039    
         182      12.7535973          141514.609    
         183      12.8924751          153084.188    
         184      13.0328655          165815.078    
         185      13.1747847          180029.672    
         186      13.3182487          196058.281    
         187      13.4632750          213913.266    
         188      13.6098804          233839.688    
         189      13.7580824          256732.656    
         190      13.9078979          282981.594    
         191      14.0593452          312750.469    
         192      14.2124414          346359.719    
         193      14.3672047          384406.938    
         194      14.5236530          427399.625    
         195      14.6818056          475701.125    
         196      14.8416805          529917.062    
         197      15.0032959          590671.688    
         198      15.1666708          659365.438    
         199      15.3318253          735645.250    
         200      15.4987783          819408.812    
         201      15.6675491          910083.500    
         202      15.8381577          1006303.31    
         203      16.0106239          1105644.62    
         204      16.1849689          1204079.38    
         205      16.3612118          1295875.38    
         206      16.5393734          1375121.50    
         207      16.7194748          1436029.00    
         208      16.9015388          1474035.00    
         209      17.0855846          1486739.12    
         210      17.2716351          1474368.62    
         211      17.4597111          1439615.25    
         212      17.6498356          1386931.00    
         213      17.8420296          1321559.00    
         214      18.0363159          1248647.50    
         215      18.2327194          1172625.12    
         216      18.4312611          1096935.00    
         217      18.6319637          1024039.00    
         218      18.8348522          955576.062    
         219      19.0399513          892628.438    
         220      19.2472820          836066.312    
         221      19.4568710          787280.562    
         222      19.6687431          756216.750    
         223      19.8829212          699363.875    
         224      20.0994320          596978.062    
         225      20.3183002          538168.625    
         226      20.5395527          486160.250    
         227      20.7632141          454728.188    
         228      20.9893112          424239.719    
         229      21.2178707          386711.312    
         230      21.4489174          349237.531    
         231      21.6824818          323492.938    
         232      21.9185886          301252.031    
         233      22.1572666          283418.250    
         234      22.3985443          267924.344    
         235      22.6424484          254169.906    
         236      22.8890095          241667.094    
         237      23.1382542          230492.875    
         238      23.3902130          220376.812    
         239      23.6449165          211266.406    
         240      23.9023933          202910.031    
         241      24.1626740          195395.750    
         242      24.4257889          188379.062    
         243      24.6917686          181997.562    
         244      24.9606438          175851.812    
         245      25.2324467          170324.953    
         246      25.5072098          164925.062    
         247      25.7849655          161044.938    
         248      26.0657463          157281.938    
         249      26.3495846          153946.031    
         250      26.6365128          150860.875    
         251      26.9265652          148055.750    
         252      27.2197762          145498.484    
         253      27.5161800          143039.203    
         254      27.8158112          140998.938    
         255      28.1187057          139057.078    
         256      28.4248981          137277.828    
         257      28.7344246          135658.531    
         258      29.0473213          134109.297    
         259      29.3636265          132700.688    
         260      29.6833763          131352.109    
         261      30.0066071          130052.203    
         262      30.3333569          129045.844    
         263      30.6636658          128031.062    
         264      30.9975719          127007.352    
         265      31.3351135          126149.258    
         266      31.6763306          125284.844    
         267      32.0212631          124420.531    
         268      32.3699532          123664.258    
         269      32.7224388          122900.547    
         270      33.0787621          122160.578    
         271      33.4389648          121524.039    
         272      33.8030930          120881.086    
         273      34.1711845          120277.531    
         274      34.5432854          119720.703    
         275      34.9194374          119158.344    
         276      35.2996864          118641.039    
         277      35.6840744          118131.461    
         278      36.0726471          117633.148    
         279      36.4654541          117201.992    
         280      36.8625374          116766.281    
         281      37.2639427          116339.531    
         282      37.6697197          115914.414    
         283      38.0799179          115484.148    
         284      38.4945831          115048.312    
         285      38.9137611          114605.633    
         286      39.3375053          114235.195    
         287      39.7658615          113880.320    
         288      40.1988831          113519.688    
         289      40.6366196          113152.406    
         290      41.0791245          112784.508    
         291      41.5264473          112435.414    
         292      41.9786415          112080.305    
         293      42.4357605          111727.195    
         294      42.8978577          111367.961    
         295      43.3649864          110994.242    
         296      43.8372002          110610.258    
         297      44.3145561          110247.727    
         298      44.7971115          109892.758    
         299      45.2849197          109543.906    
         300      45.7780418          109197.398    
         301      46.2765312          108850.828    
         302      46.7804489          108502.156    
         303      47.2898560          108152.812    
         304      47.8048096          107800.883    
         305      48.3253708          107438.109    
         306      48.8516006          107065.312    
         307      49.3835602          106698.062    
         308      49.9213104          106327.391    
         309      50.4649200          105955.641    
         310      51.0144463          105576.656    
         311      51.5699577          105207.508    
         312      52.1315193          104833.867    
         313      52.6991959          104466.461    
         314      53.2730522          104102.359    
         315      53.8531570          103743.602    
         316      54.4395790          103386.961    
         317      55.0323868          103025.797    
         318      55.6316490          102677.203    
         319      56.2374382          102314.242    
         320      56.8498230          101933.711    
         321      57.4688759          101543.836    
         322      58.0946693          101147.805    
         323      58.7272797          100762.344    
         324      59.3667793          100386.586    
         325      60.0132408          100016.000    
         326      60.6667442          99644.2500    
         327      61.3273621          99271.9844    
         328      61.9951744          98899.8125    
         329      62.6702576          98518.7266    
         330      63.3526917          98138.2812    
         331      64.0425568          97758.5000    
         332      64.7399368          97378.9297    
         333      65.4449081          97003.4297    
         334      66.1575546          96629.2812    
         335      66.8779602          96255.4062    
         336      67.6062164          95883.0859    
         337      68.3423996          95509.2812    
         338      69.0866013          95133.8906    
         339      69.8389053          94761.8125    
         340      70.5994034          94390.9219    
         341      71.3681793          94028.6094    
         342      72.1453247          93673.9688    
         343      72.9309387          93310.5234    
         344      73.7251053          92954.0312    
         345      74.5279160          92591.8906    
         346      75.3394699          92236.3281    
         347      76.1598663          91893.9062    
         348      76.9891968          91544.4062    
         349      77.8275528          91208.6719    
         350      78.6750412          90866.9297    
         351      79.5317535          90533.0703    
         352      80.3977966          90203.8281    
         353      81.2732697          89878.6641    
         354      82.1582794          89567.5234    
         355      83.0529251          89255.3750    
         356      83.9573135          88945.1328    
         357      84.8715515          88666.5469    
         358      85.7957458          88422.9219    
         359      86.7300034          88204.0938    
         360      87.6744308          88043.1484    
         361      88.6291428          88090.7031    
         362      89.5942535          88710.7578    
         363      90.5698700          89754.4609    
         364      91.5561142          91152.4844    
         365      92.5530930          93087.7266    
         366      93.5609283          96002.9531    
         367      94.5797424          100395.922    
         368      95.6096497          107426.242    
         369      96.6507721          116923.180    
         370      97.7032318          128429.250    
         371      98.7671509          147967.828    
         372      99.8426590          173676.688    
         373      100.929878          435798.750    
